Wavelength (Âµm)    Reflectance, P-Pol. (%) Reflectance, S-Pol. (%) Reflectance, Unpol. (%)
0.350   5.356365204 6.149227142 5.752796173
0.351   5.358998299 7.374481678 6.366739989
0.352   5.607214451 8.028581619 6.817898035
0.353   6.080406666 9.117690086 7.599048376
0.354   6.833250999 9.992224693 8.412737846
0.355   6.994289875 11.63570023 9.314995053
0.356   7.127397537 12.00106525 9.564231394
0.357   7.712846279 13.43643856 10.57464242
0.358   7.932781219 14.8163929  11.37458706
0.359   8.444232941 15.91440105 12.179317
0.36    8.72673893  17.38298035 13.05485964
0.361   9.577638626 18.28249168 13.93006515
0.362   9.717563629 19.55180931 14.63468647
0.363   10.1618576  20.90770721 15.53478241
0.364   10.7053566  22.19122505 16.44829083
0.365   11.25603867 23.13104057 17.19353962
0.366   11.73402119 24.31480026 18.02441073
0.367   12.05831623 25.33084106 18.69457865
0.368   12.65310955 26.51076698 19.58193827
0.369   13.20067787 27.84290314 20.52179051
0.37    13.5589304  28.85214043 21.20553542
0.371   14.1423378  30.33743858 22.23988819
0.372   14.70393085 31.1271553  22.91554308
0.373   15.17383003 32.40262985 23.78822994
0.374   15.64495754 33.30449295 24.47472525
0.375   16.20771027 34.49983978 25.35377503
0.376   16.73650551 35.28395844 26.01023198
0.377   17.03194237 36.17987061 26.60590649
0.378   17.67942238 37.22939301 27.4544077
0.379   18.04054451 38.07803345 28.05928898
0.38    18.6358242  39.12798309 28.88190365
0.381   19.06929207 39.8777771  29.47353459
0.382   19.51907158 40.64616394 30.08261776
0.383   19.87553596 41.27376556 30.57465076
0.384   20.39488792 41.90964508 31.1522665
0.385   20.77345467 42.79565811 31.78455639
0.386   21.17881775 43.54534149 32.36207962
0.387   21.63566399 44.10865784 32.87216092
0.388   22.0688839  44.89862442 33.48375416
0.389   22.38459206 45.34033585 33.86246396
0.39    22.8915863  45.91101456 34.40130043
0.391   23.16041756 46.42619324 34.7933054
0.392   23.53164482 46.98365784 35.25765133
0.393   23.87090874 47.55872726 35.714818
0.394   24.22449493 47.96143341 36.09296417
0.395   24.53925896 48.4536171  36.49643803
0.396   24.85442734 48.9871788  36.92080307
0.397   25.19628906 49.39408112 37.29518509
0.398   25.48934746 50.06660843 37.77797795
0.399   25.83713913 50.25757599 38.04735756
0.4 26.09412384 50.72951889 38.41182137
0.401   26.32626534 50.87352371 38.59989453
0.402   26.60206223 51.40468979 39.00337601
0.403   26.86328316 51.75865173 39.31096745
0.404   27.03462029 51.95956421 39.49709225
0.405   27.29939461 52.25971985 39.77955723
0.406   27.55220604 52.49039459 40.02130032
0.407   27.72629166 52.89709091 40.31169129
0.408   27.94242287 53.03672409 40.48957348
0.409   28.15085602 53.1835556  40.66720581
0.41    28.32975388 53.47360992 40.9016819
0.411   28.52745628 53.67777252 41.1026144
0.412   28.65023994 53.83069611 41.24046803
0.413   28.80424309 54.04647446 41.42535878
0.414   28.97437859 54.19506836 41.58472348
0.415   29.1115551  54.42399979 41.76777745
0.416   29.23599243 54.42987823 41.83293533
0.417   29.32067871 54.61260223 41.96664047
0.418   29.49577522 54.69993973 42.09785748
0.419   29.55862808 54.74377823 42.15120316
0.42    29.66509819 54.90874481 42.2869215
0.421   29.77786446 55.007267   42.39256573
0.422   29.83524513 55.09421158 42.46472836
0.423   29.94216156 55.05288315 42.49752236
0.424   29.98790359 55.1442337  42.56606865
0.425   30.06180573 55.164505   42.61315537
0.426   30.11515808 55.20690536 42.66103172
0.427   30.18656158 55.3035965  42.74507904
0.428   30.23577309 55.20074844 42.71826077
0.429   30.23078156 55.23822784 42.7345047
0.43    30.28761101 55.25383377 42.77072239
0.431   30.30927467 55.24435043 42.77681255
0.432   30.34716225 55.1950531  42.77110768
0.433   30.35929871 55.21646118 42.78787995
0.434   30.37482452 55.16678619 42.77080536
0.435   30.350811   55.08960342 42.72020721
0.436   30.36096191 54.9968071  42.67888451
0.437   30.3135128  54.97401428 42.64376354
0.438   30.32828331 54.91501617 42.62164974
0.439   30.30682564 54.815979   42.56140232
0.44    30.27657509 54.68756485 42.48206997
0.441   30.23944855 54.59969711 42.41957283
0.442   30.20207596 54.55437851 42.37822724
0.443   30.1774826  54.43312454 42.30530357
0.444   30.12092972 54.33933258 42.23013115
0.445   30.06700516 54.18031311 42.12365914
0.446   30.02032089 54.06783676 42.04407883
0.447   29.97756577 53.93909073 41.95832825
0.448   29.90139771 53.81924057 41.86031914
0.449   29.84617424 53.60800171 41.72708798
0.45    29.79673195 53.50098038 41.64885617
0.451   29.73388672 53.38999176 41.56193924
0.452   29.66082764 53.23833847 41.44958306
0.453   29.58804131 53.08965302 41.33884717
0.454   29.51479912 52.97154617 41.24317265
0.455   29.48096466 52.77418518 41.12757492
0.456   29.3799839  52.62864304 41.00431347
0.457   29.31661224 52.46002197 40.88831711
0.458   29.25625801 52.27687836 40.76656819
0.459   29.18470001 52.14218903 40.66344452
0.46    29.11810303 51.95788574 40.53799439
0.461   29.04750061 51.76871872 40.40810967
0.462   28.98822403 51.63611603 40.31217003
0.463   28.92044258 51.50905228 40.21474743
0.464   28.867033   51.33215714 40.09959507
0.465   28.81992531 51.16831207 39.99411869
0.466   28.77631187 51.03226852 39.9042902
0.467   28.72920418 50.88778305 39.80849362
0.468   28.70373344 50.74372864 39.72373104
0.469   28.65312958 50.60867691 39.63090325
0.47    28.64753532 50.46412277 39.55582905
0.471   28.61840439 50.31768799 39.46804619
0.472   28.62111664 50.2324028  39.42675972
0.473   28.63923264 50.11600113 39.37761689
0.474   28.63583565 50.03462601 39.33523083
0.475   28.68343544 49.92638397 39.30490971
0.476   28.71708298 49.8550148  39.28604889
0.477   28.76980209 49.82110977 39.29545593
0.478   28.83861923 49.76137543 39.29999733
0.479   28.95023727 49.72869492 39.3394661
0.48    29.04640961 49.71475601 39.38058281
0.481   29.18417168 49.71760559 39.45088864
0.482   29.33430099 49.7460556  39.5401783
0.483   29.5129776  49.807724   39.6603508
0.484   29.72923851 49.82819366 39.77871609
0.485   29.9384594  49.91104889 39.92475415
0.486   30.19388962 49.98449326 40.08919144
0.487   30.47341919 50.12200928 40.29771424
0.488   30.79643822 50.23604202 40.51624012
0.489   31.11937332 50.42807388 40.7737236
0.49    31.48025894 50.5929718  41.03661537
0.491   31.87520218 50.7647438  41.31997299
0.492   32.29307556 50.99758911 41.64533234
0.493   32.73903275 51.23955154 41.98929215
0.494   33.19774246 51.44481659 42.32127953
0.495   33.6882515  51.71873093 42.70349122
0.496   34.19804001 51.95155716 43.07479859
0.497   34.72050095 52.19325256 43.45687676
0.498   35.26953506 52.45738602 43.86346054
0.499   35.83929443 52.73743439 44.28836441
0.5 36.40286255 52.98141098 44.69213677
0.501   36.97768402 53.23785019 45.10776711
0.502   37.56512833 53.46611786 45.5156231
0.503   38.1524353  53.71734619 45.93489075
0.504   38.73753357 53.90704346 46.32228852
0.505   39.32732391 54.1916008  46.75946236
0.506   39.89576721 54.30986786 47.10281754
0.507   40.48921585 54.53096771 47.51009178
0.508   41.05841064 54.6642189  47.86131477
0.509   41.61798859 54.83524704 48.22661782
0.51    42.15597916 54.95463562 48.55530739
0.511   42.69454193 55.08884811 48.89169502
0.512   43.23788452 55.14734268 49.1926136
0.513   43.73192978 55.20026779 49.46609879
0.514   44.2426796  55.24460602 49.74364281
0.515   44.72908783 55.29309082 50.01108933
0.516   45.18788147 55.29607391 50.24197769
0.517   45.652771   55.27929688 50.46603394
0.518   46.10702515 55.25109863 50.67906189
0.519   46.52807999 55.18338013 50.85573006
0.52    46.95717239 55.13589859 51.04653549
0.521   47.36611176 55.07597351 51.22104264
0.522   47.77233887 54.97311401 51.37272644
0.523   48.16574478 54.84143448 51.50358963
0.524   48.55273056 54.72736359 51.64004708
0.525   48.92959595 54.61962891 51.77461243
0.526   49.30125427 54.44080734 51.87103081
0.527   49.65499496 54.30278015 51.97888756
0.528   50.01221848 54.10483551 52.058527
0.529   50.37384033 53.92733765 52.15058899
0.53    50.70486832 53.73114777 52.21800805
0.531   51.03903961 53.49663544 52.26783753
0.532   51.38384247 53.29860306 52.34122277
0.533   51.71916962 53.07772827 52.39844895
0.534   52.05139923 52.84677124 52.44908524
0.535   52.35001373 52.61898804 52.48450089
0.536   52.67298126 52.41269302 52.54283714
0.537   53.01303101 52.15070343 52.58186722
0.538   53.32732391 51.89831924 52.61282158
0.539   53.64490891 51.63407898 52.63949395
0.54    53.9612999  51.38976669 52.6755333
0.541   54.28385925 51.1640892  52.72397423
0.542   54.58877182 50.86473846 52.72675514
0.543   54.91661835 50.63853455 52.77757645
0.544   55.24175644 50.38570023 52.81372834
0.545   55.55466843 50.13546753 52.84506798
0.546   55.86037445 49.90428543 52.88232994
0.547   56.18277359 49.67588806 52.92933083
0.548   56.51274872 49.43842697 52.97558785
0.549   56.84080887 49.23209381 53.03645134
0.55    57.15575409 49.01361084 53.08468247
0.551   57.48451996 48.82750702 53.15601349
0.552   57.80500793 48.61250687 53.2087574
0.553   58.1449585  48.45328903 53.29912377
0.554   58.46188736 48.30786896 53.38487816
0.555   58.77461243 48.17461777 53.4746151
0.556   59.10567474 48.04319    53.57443237
0.557   59.41991043 47.96683502 53.69337273
0.558   59.76873779 47.88803864 53.82838822
0.559   60.0991745  47.84199142 53.97058296
0.56    60.441185   47.83036041 54.13577271
0.561   60.77108383 47.83483887 54.30296135
0.562   61.1108017  47.86334229 54.487072
0.563   61.44397736 47.93229294 54.68813515
0.564   61.77277374 48.01683044 54.89480209
0.565   62.10612106 48.15720749 55.13166428
0.566   62.45533371 48.34012222 55.39772797
0.567   62.80099869 48.52641678 55.66370774
0.568   63.14312744 48.74268723 55.94290734
0.569   63.4932518  49.04403305 56.26864243
0.57    63.84376907 49.28574753 56.5647583
0.571   64.18580627 49.70094299 56.94337463
0.572   64.55613708 50.04359055 57.29986382
0.573   64.89924622 50.48503876 57.69214249
0.574   65.23831177 50.92170334 58.08000756
0.575   65.60198975 51.3972168  58.49960328
0.576   65.93647003 51.9452095  58.94083977
0.577   66.29232025 52.45864868 59.37548447
0.578   66.64620972 53.03397369 59.84009171
0.579   66.99680328 53.63954163 60.31817246
0.58    67.35791016 54.28076553 60.81933785
0.581   67.69908142 54.93014526 61.31461334
0.582   68.05172729 55.61244583 61.83208656
0.583   68.40679169 56.32328415 62.36503792
0.584   68.75733185 57.0161171  62.88672448
0.585   69.12507629 57.77529907 63.45018768
0.586   69.45641327 58.54990387 64.00315857
0.587   69.83416748 59.30226898 64.56821823
0.588   70.18061066 60.10050964 65.14056015
0.589   70.51447296 60.88329697 65.69888497
0.59    70.86932373 61.67961502 66.27446938
0.591   71.22097778 62.48304367 66.85201073
0.592   71.55186462 63.30614853 67.42900658
0.593   71.89706421 64.11335754 68.00521088
0.594   72.23997498 64.93603516 68.58800507
0.595   72.58116913 65.71140289 69.14628601
0.596   72.9361496  66.55775452 69.74695206
0.597   73.25666809 67.31830597 70.28748703
0.598   73.60565186 68.1084137  70.85703278
0.599   73.93132019 68.8812561  71.40628815
0.6 74.26635742 69.70314026 71.98474884
0.601   74.59791565 70.43899536 72.51845551
0.602   74.91513824 71.16962433 73.04238129
0.603   75.23392487 71.93577576 73.58485032
0.604   75.55240631 72.65013123 74.10126877
0.605   75.88074493 73.35391998 74.61733246
0.606   76.18409729 74.07467651 75.1293869
0.607   76.49810791 74.76573181 75.63191986
0.608   76.81268311 75.43371582 76.12319947
0.609   77.11988831 76.11522675 76.61755753
0.61    77.43477631 76.72161865 77.07819748
0.611   77.72227478 77.37024689 77.54626084
0.612   78.04673004 77.95905304 78.00289154
0.613   78.3323822  78.57384491 78.45311356
0.614   78.64107513 79.14044189 78.89075851
0.615   78.91969299 79.70639801 79.3130455
0.616   79.21620941 80.28331757 79.74976349
0.617   79.52095795 80.79966736 80.16031266
0.618   79.80101013 81.29360962 80.54730988
0.619   80.07698822 81.79734039 80.93716431
0.62    80.38035583 82.31033325 81.34534454
0.621   80.651474   82.76068115 81.70607758
0.622   80.92861938 83.20384216 82.06623077
0.623   81.2015686  83.66466522 82.43311691
0.624   81.46875763 84.08973694 82.77924729
0.625   81.74058533 84.49784088 83.11921311
0.626   81.98034668 84.88409424 83.43222046
0.627   82.26758575 85.28668213 83.77713394
0.628   82.51720428 85.69953156 84.10836792
0.629   82.76582336 86.01748657 84.39165497
0.63    83.0144577  86.37772369 84.6960907
0.631   83.26065826 86.72827148 84.99446487
0.632   83.51581573 87.09360504 85.30471039
0.633   83.7363205  87.37261963 85.55447007
0.634   83.9812851  87.69307709 85.8371811
0.635   84.21524048 88.02490234 86.12007141
0.636   84.45343018 88.29666901 86.3750496
0.637   84.66917419 88.58677673 86.62797546
0.638   84.89487457 88.87004852 86.88246155
0.639   85.09999847 89.12545013 87.1127243
0.64    85.33196259 89.37529755 87.35363007
0.641   85.53858185 89.6453476  87.59196473
0.642   85.7281189  89.84745789 87.7877884
0.643   85.95068359 90.13335419 88.04201889
0.644   86.13489532 90.3515625  88.24322891
0.645   86.34259796 90.60951233 88.47605515
0.646   86.53768921 90.77532196 88.65650559
0.647   86.72590637 90.99101257 88.85845947
0.648   86.91278839 91.20587921 89.0593338
0.649   87.09707642 91.40384674 89.25046158
0.65    87.2918396  91.57144928 89.43164444
0.651   87.4358902  91.80597687 89.62093354
0.652   87.6267395  91.96051025 89.79362488
0.653   87.78088379 92.13513947 89.95801163
0.654   87.96696472 92.27954865 90.12325669
0.655   88.14156342 92.44056702 90.29106522
0.656   88.28529358 92.62359619 90.45444489
0.657   88.46733856 92.75391388 90.61062622
0.658   88.60608673 92.92240143 90.76424408
0.659   88.76104736 93.07361603 90.9173317
0.66    88.92626953 93.20766449 91.06696701
0.661   89.06243896 93.36016083 91.2112999
0.662   89.21929932 93.50685883 91.36307908
0.663   89.34927368 93.56330872 91.4562912
0.664   89.50188446 93.7682724  91.63507843
0.665   89.63624573 93.84864044 91.74244309
0.666   89.76763153 93.99004364 91.87883759
0.667   89.89710236 94.10553741 92.00131989
0.668   90.03010559 94.21952057 92.12481308
0.669   90.14861298 94.32450867 92.23656083
0.67    90.27456665 94.43371582 92.35414124
0.671   90.38779449 94.55810547 92.47294998
0.672   90.5349884  94.58692932 92.56095886
0.673   90.62875366 94.71595764 92.67235565
0.674   90.74206543 94.79858398 92.77032471
0.675   90.8699646  94.89476776 92.88236618
0.676   90.96768188 95.03851318 93.00309753
0.677   91.07803345 95.0854187  93.08172608
0.678   91.17835999 95.19457245 93.18646622
0.679   91.28573608 95.2984314  93.29208374
0.68    91.38822937 95.32649231 93.35736084
0.681   91.48288727 95.43826294 93.46057511
0.682   91.58146667 95.52898407 93.55522537
0.683   91.68383789 95.59072113 93.63727951
0.684   91.76068115 95.63566589 93.69817352
0.685   91.85131836 95.70617676 93.77874756
0.686   91.92922974 95.76858521 93.84890748
0.687   92.0302124  95.81359863 93.92190552
0.688   92.11048126 95.88387299 93.99717713
0.689   92.1805954  95.9463501  94.06347275
0.69    92.28496552 96.00349426 94.14422989
0.691   92.35756683 96.0459671  94.20176697
0.692   92.41551971 96.13327026 94.27439499
0.693   92.50228119 96.12438202 94.31333161
0.694   92.5817337  96.21824646 94.39999008
0.695   92.6455307  96.26289368 94.45421219
0.696   92.70635223 96.30201721 94.50418472
0.697   92.77980804 96.38148499 94.58064652
0.698   92.85424042 96.3874054  94.62082291
0.699   92.91884613 96.4196167  94.66923142
0.7 92.9848175  96.49133301 94.73807526
0.701   93.05814362 96.53214264 94.79514313
0.702   93.10971069 96.5920105  94.8508606
0.703   93.15824127 96.66701508 94.91262818
0.704   93.23443604 96.67984009 94.95713807
0.705   93.28257751 96.73599243 95.00928497
0.706   93.35212708 96.73816681 95.04514695
0.707   93.40232849 96.77155304 95.08694077
0.708   93.45145416 96.84198761 95.14672089
0.709   93.51241302 96.83846283 95.17543793
0.71    93.55786896 96.88768768 95.22277832
0.711   93.60488892 96.90982819 95.25735856
0.712   93.66355896 96.94324493 95.30340195
0.713   93.70806122 96.95192719 95.32999421
0.714   93.75798035 97.02422333 95.39110184
0.715   93.8115387  97.06110382 95.43632126
0.716   93.86190033 97.07556152 95.46873093
0.717   93.9111557  97.09306335 95.50210953
0.718   93.94972992 97.11223602 95.53098297
0.719   93.98907471 97.17234039 95.58070755
0.72    94.12275696 97.10760498 95.61518097
0.721   94.09230042 97.1418457  95.61707306
0.722   94.25800323 97.16435242 95.71117783
0.723   94.23049164 97.19351196 95.7120018
0.724   94.27777863 97.19812775 95.73795319
0.725   94.23470306 97.25170898 95.74320602
0.726   94.34162903 97.25582123 95.79872513
0.727   94.33643341 97.27824402 95.80733872
0.728   94.41599274 97.32424927 95.87012101
0.729   94.45393372 97.32009125 95.88701249
0.73    94.47648621 97.36019897 95.91834259
0.731   94.50981903 97.36338806 95.93660355
0.732   94.58344269 97.38476563 95.98410416
0.733   94.59588623 97.4185257  96.00720597
0.734   94.64050293 97.43165588 96.03607941
0.735   94.61341095 97.46144104 96.037426
0.736   94.68043518 97.47426605 96.07735062
0.737   94.76574707 97.48252869 96.12413788
0.738   94.73535156 97.50945282 96.12240219
0.739   94.80388641 97.516922   96.16040421
0.74    94.83039856 97.54923248 96.18981552
0.741   94.882164   97.54955292 96.21585846
0.742   94.84103394 97.58978271 96.21540833
0.743   94.96178436 97.59618378 96.27898407
0.744   94.95096588 97.60995483 96.28046036
0.745   94.9262085  97.6293869  96.2777977
0.746   94.99019623 97.63792419 96.31406021
0.747   95.00747681 97.64975739 96.3286171
0.748   95.07200623 97.6904068  96.38120652
0.749   95.02079773 97.69011688 96.35545731
0.75    95.12217712 97.70183563 96.41200638
0.751   95.14667511 97.70326233 96.42496872
0.752   95.13157654 97.7375412  96.43455887
0.753   95.21533203 97.76399994 96.48966599
0.754   95.22990417 97.76193237 96.49591827
0.755   95.24376678 97.78318787 96.51347733
0.756   95.29039764 97.78364563 96.53702164
0.757   95.25741577 97.81356812 96.53549195
0.758   95.32898712 97.81799316 96.57349014
0.759   95.32057953 97.82321167 96.5718956
0.76    95.38119507 97.8368454  96.60902024
0.761   95.366745   97.86497498 96.61585999
0.762   95.42880249 97.86978149 96.64929199
0.763   95.46591949 97.86975861 96.66783905
0.764   95.48493195 97.88813019 96.68653107
0.765   95.4386673  97.89910889 96.6688881
0.766   95.52657318 97.89230347 96.70943833
0.767   95.533638   97.90340424 96.71852112
0.768   95.52310181 97.92720795 96.72515488
0.769   95.59709167 97.95449829 96.77579498
0.77    95.54859924 97.95534515 96.7519722
0.771   95.57779694 97.97301483 96.77540589
0.772   95.6319809  97.97923279 96.80560685
0.773   95.64264679 97.99398804 96.81831742
0.774   95.66514587 98.00041199 96.83277893
0.775   95.67007446 98.01273346 96.84140396
0.776   95.68994904 98.02345276 96.8567009
0.777   95.75141144 98.0259552  96.88868332
0.778   95.7752533  98.01770782 96.89648056
0.779   95.74933624 98.05308533 96.90121079
0.78    95.82293701 98.05544281 96.93918991
0.781   95.7909317  98.0734024  96.93216705
0.782   95.79855347 98.08581543 96.94218445
0.783   95.80680084 98.08403015 96.9454155
0.784   95.8046875  98.08634186 96.94551468
0.785   95.80892944 98.08443451 96.94668198
0.786   95.83317566 98.11037445 96.97177506
0.787   95.90098572 98.11930084 97.01014328
0.788   95.89466095 98.11898804 97.0068245
0.789   95.9058075  98.14656067 97.02618409
0.79    95.91909027 98.1346817  97.02688599
0.791   95.95455933 98.14043427 97.0474968
0.792   95.97741699 98.14723969 97.06232834
0.793   95.95404053 98.14336395 97.04870224
0.794   95.99435425 98.17416382 97.08425904
0.795   96.03614807 98.16568756 97.10091782
0.796   96.04197693 98.17710876 97.10954285
0.797   96.04221344 98.18585205 97.11403275
0.798   96.06951904 98.19718933 97.13335419
0.799   96.04891205 98.19043732 97.11967469
0.8 96.0508194  98.21315765 97.13198853
0.801   96.07855988 98.19754028 97.13805008
0.802   96.10314941 98.21791077 97.16053009
0.803   96.09889221 98.21914673 97.15901947
